
Integration time [ms]:  10,000
Averaging Nr. [scans]: 30
Smoothing Nr. [pixels]: 0
Data measured with spectrometer [name]: 0901140U1
Wave   ;Sample   ;Dark     ;Reference;Scope
[nm]   ;[counts] ;[counts] ;[counts] 

 260,00;   Not Available
 261,00;   Not Available
 262,00;   Not Available
 263,00;   Not Available
 264,00;   Not Available
 265,00;   Not Available
 266,00;   Not Available
 267,00;   Not Available
 268,00;   Not Available
 269,00;   Not Available
 270,00;   Not Available
 271,00;   Not Available
 272,00;   Not Available
 273,00;   Not Available
 274,00;   Not Available
 275,00;   Not Available
 276,00;   Not Available
 277,00;   Not Available
 278,00;   Not Available
 279,00;   Not Available
 280,00;   Not Available
 281,00;   Not Available
 282,00;   Not Available
 283,00;   Not Available
 284,00;   Not Available
 285,00;   Not Available
 286,00;   Not Available
 287,00;   Not Available
 288,00;   Not Available
 289,00;   Not Available
 290,00;   Not Available
 291,00;   Not Available
 292,00;   Not Available
 293,00;   Not Available
 294,00;   Not Available
 295,00;   Not Available
 296,00;   Not Available
 297,00;   Not Available
 298,00;   Not Available
 299,00;   Not Available
 300,00;   Not Available
 301,00;   Not Available
 302,00;   Not Available
 303,00;   Not Available
 304,00;   Not Available
 305,00;   Not Available
 306,00;   Not Available
 307,00;   Not Available
 308,00;   Not Available
 309,00;   Not Available
 310,00;   Not Available
 311,00;   Not Available
 312,00;   Not Available
 313,00;   Not Available
 314,00;   Not Available
 315,00;   Not Available
 316,00;   Not Available
 317,00;   Not Available
 318,00;   Not Available
 319,00;   Not Available
 320,00;   Not Available
 321,00;   Not Available
 322,00;   Not Available
 323,00;   Not Available
 324,00;   Not Available
 325,00;   Not Available
 326,00;   Not Available
 327,00;   Not Available
 328,00;   Not Available
 329,00;   Not Available
 330,00;   Not Available
 331,00;   Not Available
 332,00;   Not Available
 333,00;   Not Available
 334,00;   Not Available
 335,00;   Not Available
 336,00;   Not Available
 337,00;   Not Available
 338,00;   Not Available
 339,00;   Not Available
 340,00;   Not Available
 341,00;   Not Available
 342,00;   Not Available
 343,00;   19,369;   -0,042; 5308,653
 344,00;   14,690;    3,248; 5435,737
 345,00;   14,069;   -0,687; 5586,839
 346,00;   17,301;   -1,316; 5899,019
 347,00;    8,320;    0,583; 6169,222
 348,00;   17,934;    4,643; 6334,159
 349,00;   22,529;    1,589; 6593,907
 350,00;   13,516;   -0,161; 6639,549
 351,00;   16,186;   -3,740; 6811,936
 352,00;   32,284;    4,863; 6805,536
 353,00;   13,931;    3,098; 6722,142
 354,00;   14,313;   11,456; 6660,788
 355,00;   12,265;   -0,317; 6859,957
 356,00;   23,579;    3,085; 7013,905
 357,00;   27,416;    1,773; 7062,159
 358,00;   27,287;   -1,850; 7139,153
 359,00;   10,193;    5,362; 7172,313
 360,00;   13,930;   -0,945; 7184,622
 361,00;   22,683;    4,640; 7271,278
 362,00;   19,688;    1,986; 7267,726
 363,00;   20,263;   -1,653; 7353,291
 364,00;   29,053;    3,267; 7347,788
 365,00;   20,919;   -2,526; 7376,368
 366,00;   19,143;    5,423; 7425,625
 367,00;   28,315;    1,077; 7691,767
 368,00;   21,461;   -0,660; 7901,408
 369,00;   12,334;   -2,295; 7832,170
 370,00;   16,994;    0,997; 8026,802
 371,00;   24,503;    0,108; 7804,205
 372,00;   18,952;   -0,688; 7872,014
 373,00;   14,271;    1,758; 7907,641
 374,00;   23,077;    0,283; 7977,145
 375,00;   26,386;    0,361; 7791,377
 376,00;   21,775;    1,476; 7795,045
 377,00;   22,590;    4,076; 7797,232
 378,00;   24,820;    4,427; 8369,540
 379,00;   18,525;    6,374; 8415,530
 380,00;   23,330;    4,474; 8362,086
 381,00;   19,464;    8,202; 8145,759
 382,00;   29,069;    8,451; 8040,339
 383,00;   22,653;    3,121; 7942,856
 384,00;   22,982;    2,617; 7877,278
 385,00;   11,855;    1,733; 7830,965
 386,00;   22,175;    3,665; 8065,170
 387,00;   21,722;    7,203; 8047,448
 388,00;   29,832;    4,292; 8521,671
 389,00;   20,956;    3,476; 8246,824
 390,00;   25,177;   -3,709; 8205,581
 391,00;   20,602;    0,076; 7955,041
 392,00;   19,807;    7,527; 8241,355
 393,00;   20,269;    1,829; 8365,932
 394,00;   29,109;    9,557; 7975,822
 395,00;   23,685;   -2,359; 8086,842
 396,00;   27,157;    5,159; 8008,916
 397,00;   19,654;    7,819; 8328,379
 398,00;   18,866;    0,294; 8563,734
 399,00;   10,633;    6,943; 8852,164
 400,00;   31,408;    5,366; 8319,759
 401,00;   23,600;    3,627; 7747,729
 402,00;   32,990;    1,281; 7571,799
 403,00;   27,618;    6,363; 7412,172
 404,00;   27,142;    5,728; 7669,434
 405,00;   30,131;    1,982; 7609,302
 406,00;   29,771;    0,823; 7620,879
 407,00;   20,922;    6,431; 7442,482
 408,00;   23,709;    2,157; 7481,070
 409,00;   30,631;   -0,802; 7398,022
 410,00;   25,270;    2,440; 7427,271
 411,00;   22,933;    3,476; 7405,718
 412,00;   27,692;    6,473; 7360,099
 413,00;   22,613;    2,681; 7486,115
 414,00;   28,279;    2,528; 7927,028
 415,00;   23,509;    5,374; 7686,086
 416,00;   19,674;    0,564; 7494,637
 417,00;   38,215;    1,319; 7471,791
 418,00;   34,589;    3,676; 7560,669
 419,00;   30,966;    4,244; 7755,964
 420,00;   43,407;    3,001; 8012,610
 421,00;   54,521;    6,532; 8465,100
 422,00;   50,540;    6,996; 9161,408
 423,00;   63,488;   -2,817; 9191,825
 424,00;   54,026;   -0,062; 9271,484
 425,00;   70,213;    5,149; 8852,789
 426,00;   76,936;    2,015; 8801,746
 427,00;   84,318;    2,890; 8997,735
 428,00;  114,505;    2,147; 9554,482
 429,00;  122,294;    2,279; 9685,289
 430,00;  139,635;    6,943;10238,988
 431,00;  163,717;    2,435;10520,281
 432,00;  198,898;    1,956; 9940,647
 433,00;  225,188;    0,383; 9535,601
 434,00;  265,432;    3,284; 9904,623
 435,00;  308,890;    1,111;10198,457
 436,00;  362,068;    3,710;10046,201
 437,00;  419,362;    2,990;10107,762
 438,00;  491,584;   -1,790;10187,177
 439,00;  544,216;    0,801; 9930,316
 440,00;  659,336;    4,995; 9843,439
 441,00;  773,539;    4,683;10147,359
 442,00;  841,060;    1,708; 9880,016
 443,00; 1002,671;    4,022; 9609,006
 444,00; 1124,579;    4,970; 8842,917
 445,00; 1334,045;    3,642; 8717,773
 446,00; 1524,697;    0,294; 9108,867
 447,00; 1693,189;    3,214; 9446,540
 448,00; 1988,564;    1,678;10103,260
 449,00; 2353,911;    4,529;10864,071
 450,00; 2758,804;    0,285;11428,142
 451,00; 3243,746;   -1,116;11859,538
 452,00; 3705,308;    1,252;11920,851
 453,00; 4604,021;    3,434;12365,451
 454,00; 5370,850;   -1,505;12348,034
 455,00; 6449,818;    4,028;12907,695
 456,00; 7304,763;    6,445;13043,195
 457,00; 8330,570;    3,011;13154,216
 458,00; 8781,725;    3,227;13466,441
 459,00; 9585,481;    1,747;13925,955
 460,00; 9913,373;    2,647;13797,224
 461,00;10407,147;    4,310;13717,760
 462,00;10744,916;    2,955;13603,510
 463,00;10363,216;    1,672;13405,965
 464,00;10557,294;    2,324;14202,312
 465,00;10206,502;    6,023;14951,125
 466,00; 9609,523;    2,250;15131,470
 467,00; 8995,516;   -3,115;14825,442
 468,00; 8451,993;    1,957;14679,288
 469,00; 7723,788;   -1,137;14474,279
 470,00; 7269,563;   -1,581;14051,918
 471,00; 6843,946;    1,502;13976,505
 472,00; 6767,608;    1,868;14369,674
 473,00; 6505,761;   -0,932;14937,848
 474,00; 6494,752;    1,334;15444,499
 475,00; 6306,327;   -1,157;15589,378
 476,00; 6312,717;    6,891;16010,549
 477,00; 6281,520;   -2,285;15962,462
 478,00; 6310,410;    3,104;16332,794
 479,00; 6219,092;    5,322;16686,910
 480,00; 5928,468;    0,553;17099,205
 481,00; 5749,851;    5,806;17484,386
 482,00; 5659,825;    3,372;17809,137
 483,00; 5337,101;    2,125;17966,667
 484,00; 5048,371;   -3,126;18556,171
 485,00; 4844,742;    1,445;22468,907
 486,00; 4575,153;    0,811;31549,406
 487,00; 4395,561;   -1,395;31339,104
 488,00; 4284,323;    6,628;20056,548
 489,00; 4172,608;    3,347;18925,110
 490,00; 4081,871;    5,383;19158,655
 491,00; 4129,742;    1,072;19219,379
 492,00; 4039,645;    0,479;19039,717
 493,00; 3998,290;    4,369;19073,019
 494,00; 4000,966;   -1,705;19310,317
 495,00; 3986,767;   -1,691;18904,344
 496,00; 3994,791;    5,041;19320,323
 497,00; 4021,823;    0,713;19521,951
 498,00; 4048,961;    6,657;18975,697
 499,00; 4035,758;    0,021;19205,823
 500,00; 3965,910;   -0,637;19409,174
 501,00; 3984,506;    6,167;19400,656
 502,00; 4074,770;    2,731;19825,945
 503,00; 4021,657;    3,819;19852,170
 504,00; 4212,366;    6,267;19545,973
 505,00; 4208,216;    0,363;19039,183
 506,00; 4266,864;    3,055;19003,583
 507,00; 4350,093;    0,945;18811,889
 508,00; 4478,125;   -1,997;18717,782
 509,00; 4464,704;   -1,410;18586,254
 510,00; 4698,486;    3,725;18561,556
 511,00; 4794,002;    2,462;18666,460
 512,00; 4943,120;    1,534;18630,675
 513,00; 5047,297;    9,685;18387,922
 514,00; 5132,659;    6,780;18242,142
 515,00; 5172,657;    5,326;17622,089
 516,00; 5336,352;    1,225;17554,524
 517,00; 5530,383;    1,162;17230,740
 518,00; 5584,821;   22,620;17035,085
 519,00; 5757,509;    4,323;16742,225
 520,00; 5918,676;    3,130;16657,887
 521,00; 6049,099;    8,944;16327,533
 522,00; 6240,489;    7,491;16240,052
 523,00; 6387,839;   -2,718;16176,654
 524,00; 6474,403;   -4,601;16443,395
 525,00; 6616,979;    4,013;16357,991
 526,00; 6767,045;    8,007;16480,530
 527,00; 6783,115;    6,683;16252,598
 528,00; 6908,350;    4,062;16653,785
 529,00; 6979,546;    4,644;16864,332
 530,00; 7213,526;   -0,177;17253,771
 531,00; 7205,176;   -0,185;17030,089
 532,00; 7279,534;    1,673;17490,817
 533,00; 7405,680;    0,578;18275,787
 534,00; 7390,604;    6,339;19191,745
 535,00; 7390,002;   -0,042;19583,412
 536,00; 7512,995;   -5,456;19801,991
 537,00; 7454,766;    3,493;19468,151
 538,00; 7699,396;    3,718;19791,057
 539,00; 7711,920;    7,833;19953,273
 540,00; 7720,900;    2,284;19774,906
 541,00; 7774,320;    4,635;19327,634
 542,00; 7656,223;    0,439;19376,597
 543,00; 7773,725;    1,270;19258,235
 544,00; 7662,414;   -0,154;19421,154
 545,00; 7765,964;    6,065;19569,175
 546,00; 7765,534;   -1,895;19720,234
 547,00; 7898,711;    0,648;19926,118
 548,00; 7855,394;    0,086;20885,498
 549,00; 7843,329;   -0,038;21048,594
 550,00; 7774,932;    4,478;20441,229
 551,00; 7838,823;    0,368;20291,522
 552,00; 7708,892;   -0,605;20750,020
 553,00; 7635,227;    6,332;21136,333
 554,00; 7834,134;    3,933;21175,515
 555,00; 7700,102;    2,375;21441,113
 556,00; 7785,358;    0,634;22267,749
 557,00; 7748,419;    1,533;22532,690
 558,00; 7682,560;    4,612;23078,812
 559,00; 7532,885;    3,711;23491,301
 560,00; 7633,647;   -1,764;24464,614
 561,00; 7606,819;    6,008;25434,026
 562,00; 7546,404;    2,368;25900,670
 563,00; 7537,894;   -1,849;26285,369
 564,00; 7505,278;   11,938;26912,675
 565,00; 7433,304;    5,430;27477,788
 566,00; 7468,550;    2,382;27874,917
 567,00; 7509,043;    3,512;28666,529
 568,00; 7419,364;    2,958;29770,636
 569,00; 7333,849;   -0,522;31102,097
 570,00; 7341,700;    0,188;32978,253
 571,00; 7164,591;    2,910;34369,629
 572,00; 7274,656;    3,662;35240,696
 573,00; 7261,383;   -1,779;35774,339
 574,00; 7221,008;    2,880;36874,327
 575,00; 7161,355;    0,981;37501,588
 576,00; 7047,860;    7,072;37331,900
 577,00; 7076,468;    6,284;37778,065
 578,00; 6923,823;   -2,775;38695,355
 579,00; 6891,382;    6,153;38248,724
 580,00; 6743,820;    4,260;37071,396
 581,00; 6568,151;    5,770;38578,649
 582,00; 6534,552;    2,590;39207,020
 583,00; 6374,164;    5,177;37470,977
 584,00; 6126,135;    5,213;35636,726
 585,00; 6127,063;    2,963;36323,937
 586,00; 6073,355;    0,225;36611,662
 587,00; 6138,933;    2,959;36328,456
 588,00; 6058,212;    7,420;36086,156
 589,00; 5965,836;    5,812;35896,728
 590,00; 5992,660;    5,054;35650,694
 591,00; 5832,885;    8,888;35815,884
 592,00; 5841,554;    6,022;36089,818
 593,00; 5710,435;   -0,248;36859,857
 594,00; 5625,354;   -1,801;36792,130
 595,00; 5538,900;    3,127;36973,920
 596,00; 5508,671;    0,218;36879,888
 597,00; 5567,572;    6,610;37328,150
 598,00; 5332,979;    0,515;37101,256
 599,00; 5286,871;    1,860;37353,732
 600,00; 5215,943;    5,298;37386,589
 601,00; 5222,775;    2,013;37851,726
 602,00; 4880,543;    0,092;36887,099
 603,00; 4837,965;    0,589;37382,548
 604,00; 4776,219;    3,939;36696,808
 605,00; 4625,100;    4,699;36721,164
 606,00; 4555,175;    1,771;36169,331
 607,00; 4467,640;    4,815;36331,526
 608,00; 4323,021;    7,694;35668,702
 609,00; 4222,729;   -1,222;35820,190
 610,00; 4044,320;    4,886;35288,211
 611,00; 3995,380;    4,182;35331,259
 612,00; 3926,936;   -0,146;34836,154
 613,00; 3782,320;   -2,113;34671,862
 614,00; 3637,181;    0,070;34298,335
 615,00; 3571,719;    0,562;34331,296
 616,00; 3412,781;    2,960;34028,695
 617,00; 3359,545;    5,008;34144,864
 618,00; 3356,200;    2,960;34200,385
 619,00; 3323,201;    1,023;34374,462
 620,00; 3268,218;    2,619;34782,222
 621,00; 3319,032;    6,023;35152,758
 622,00; 3272,964;    0,418;35441,372
 623,00; 3317,928;    5,531;36021,990
 624,00; 3250,271;    0,388;36494,263
 625,00; 3147,941;    6,006;36262,749
 626,00; 3174,390;    1,077;36732,193
 627,00; 3063,883;    5,224;36698,499
 628,00; 3011,793;    0,370;37373,709
 629,00; 3001,178;    9,106;37579,336
 630,00; 2950,288;   -0,291;38028,031
 631,00; 2857,682;    3,879;38202,109
 632,00; 2880,215;    5,007;38990,489
 633,00; 2781,171;    0,551;39293,266
 634,00; 2755,225;    0,404;40032,573
 635,00; 2745,807;    3,114;40600,067
 636,00; 2671,051;    5,063;41558,948
 637,00; 2662,018;    2,150;41885,449
 638,00; 2665,785;    2,875;42892,711
 639,00; 2677,016;    2,905;43655,095
 640,00; 2581,038;    3,107;44176,099
 641,00; 2604,226;    4,516;44978,812
 642,00; 2565,699;    6,812;45765,159
 643,00; 2511,925;    7,026;46324,008
 644,00; 2506,130;    5,651;46714,845
 645,00; 2413,746;    0,864;47229,471
 646,00; 2352,366;    0,634;47893,808
 647,00; 2302,982;    2,331;48047,108
 648,00; 2299,463;    3,025;48312,216
 649,00; 2225,513;    4,851;48508,625
 650,00; 2188,895;    0,434;48522,038
 651,00; 2149,382;    3,312;49018,126
 652,00; 2094,913;    2,491;48531,035
 653,00; 2059,282;    0,635;48870,640
 654,00; 2008,741;    0,401;48778,588
 655,00; 1989,491;   -0,224;49845,531
 656,00; 1941,610;   -0,043;55463,470
 657,00; 1945,916;    0,637;56631,300
 658,00; 1836,045;    8,040;49246,714
 659,00; 1792,814;    2,697;49158,694
 660,00; 1713,068;    2,498;48768,216
 661,00; 1685,022;    4,144;48814,878
 662,00; 1665,398;    5,911;48876,194
 663,00; 1608,409;    3,329;48702,559
 664,00; 1528,482;    1,404;48892,247
 665,00; 1506,260;    2,870;49183,260
 666,00; 1496,618;    1,339;49689,752
 667,00; 1425,681;    2,657;49188,088
 668,00; 1385,716;    2,678;49895,399
 669,00; 1355,717;    3,936;49712,233
 670,00; 1330,708;    2,760;50304,498
 671,00; 1273,309;    0,201;50279,333
 672,00; 1265,135;    6,155;50457,989
 673,00; 1221,725;    6,194;50480,294
 674,00; 1225,258;    6,817;51278,567
 675,00; 1131,144;    4,144;50519,404
 676,00; 1136,805;    4,146;51341,541
 677,00; 1089,777;    5,625;50461,849
 678,00; 1061,688;    1,109;50993,719
 679,00; 1017,463;    4,677;50473,464
 680,00; 1032,545;    4,174;50803,425
 681,00;  958,415;    0,235;49968,370
 682,00;  956,680;    0,662;50400,417
 683,00;  887,736;    2,125;49930,562
 684,00;  865,201;    7,792;49692,460
 685,00;  850,182;    3,155;49829,487
 686,00;  818,859;    5,728;49799,843
 687,00;  823,721;    2,544;50213,077
 688,00;  775,309;    5,236;49460,159
 689,00;  753,903;    3,807;50051,820
 690,00;  722,194;   -2,713;49086,613
 691,00;  743,959;    5,767;50208,881
 692,00;  714,466;    8,461;49553,000
 693,00;  675,318;   -4,389;49815,210
 694,00;  658,612;   -4,831;49597,372
 695,00;  645,081;    1,650;49860,159
 696,00;  612,413;    0,391;49573,614
 697,00;  610,209;    3,312;50198,054
 698,00;  587,856;    5,182;49775,512
 699,00;  575,358;    1,389;49993,374
 700,00;  552,479;    5,814;50249,553
 701,00;  547,037;   -6,151;49671,834
 702,00;  532,450;   24,422;50178,262
 703,00;  512,225;    1,372;49507,536
 704,00;  475,514;    2,128;49640,561
 705,00;  480,148;    2,489;49545,116
 706,00;  466,993;    6,002;49614,926
 707,00;  451,903;    5,496;49508,597
 708,00;  435,150;    0,281;49185,260
 709,00;  431,341;    0,928;48762,067
 710,00;  427,244;    0,257;48784,377
 711,00;  396,739;    2,116;48442,609
 712,00;  388,240;    2,398;48379,045
 713,00;  378,443;    3,319;48124,926
 714,00;  359,477;    3,323;47788,560
 715,00;  361,111;    2,670;47352,499
 716,00;  342,896;    1,001;47327,557
 717,00;  339,277;   -0,767;47075,032
 718,00;  326,186;    4,123;46231,429
 719,00;  309,874;    4,611;46379,970
 720,00;  310,668;    5,204;45934,552
 721,00;  280,888;    5,484;46184,420
 722,00;  286,645;   -1,745;45333,735
 723,00;  279,892;   -4,147;45312,754
 724,00;  263,800;    1,669;45384,225
 725,00;  258,965;    3,052;45169,462
 726,00;  254,499;   -1,233;45215,307
 727,00;  239,804;    4,459;45402,216
 728,00;  241,447;    3,743;45198,493
 729,00;  226,805;   -0,075;45036,927
 730,00;  214,641;    2,884;45281,836
 731,00;  216,374;    2,623;45243,883
 732,00;  193,436;    9,943;45542,623
 733,00;  199,841;   -1,006;45407,017
 734,00;  196,438;   -3,252;45594,318
 735,00;  190,655;   -1,722;45662,838
 736,00;  190,227;    6,782;45648,534
 737,00;  174,907;    7,536;45893,661
 738,00;  159,392;    8,522;45643,223
 739,00;  167,792;    7,767;45171,118
 740,00;  163,610;    2,215;45144,134
 741,00;  155,194;    3,690;45207,829
 742,00;  149,048;    4,659;45004,046
 743,00;  135,620;    5,013;44853,548
 744,00;  131,672;    1,821;44322,740
 745,00;  128,924;    7,429;44563,896
 746,00;  135,189;    1,159;44189,251
 747,00;  136,601;    8,505;43951,240
 748,00;  105,430;    7,888;43273,005
 749,00;  109,602;    2,018;43377,164
 750,00;   96,695;    3,416;43159,180
 751,00;  102,325;    4,206;42515,226
 752,00;   99,019;    5,343;42079,535
 753,00;  104,115;    5,282;41340,851
 754,00;   94,241;    2,805;41319,095
 755,00;   89,355;    3,716;40276,796
 756,00;   87,841;    6,277;40243,016
 757,00;   74,110;    3,754;39576,232
 758,00;   80,335;    7,402;39704,427
 759,00;   73,005;    7,962;39000,068
 760,00;   76,649;    0,977;38547,462
 761,00;   70,012;    4,183;38153,991
 762,00;   59,253;    3,050;37786,002
 763,00;   56,685;    5,642;37426,534
 764,00;   65,212;    1,250;37181,135
 765,00;   64,066;   -0,754;37171,447
 766,00;   56,581;    5,452;36472,322
 767,00;   49,089;    4,444;36253,979
 768,00;   58,286;    1,429;36376,863
 769,00;   54,315;   -1,182;36175,867
 770,00;   55,158;   -1,209;35848,783
 771,00;   39,595;   10,193;36034,098
 772,00;   47,957;    1,801;35733,893
 773,00;   50,156;    6,087;35890,631
 774,00;   56,431;    5,606;35598,640
 775,00;   44,380;    1,026;35517,664
 776,00;   46,060;    6,113;35840,170
 777,00;   46,656;    3,884;35458,882
 778,00;   37,974;    1,515;35524,560
 779,00;   35,014;    0,783;35476,436
 780,00;   40,735;    4,404;35814,053
 781,00;   48,463;    3,630;35835,393
 782,00;   32,849;   -0,328;36141,052
 783,00;   31,374;    0,491;36275,895
 784,00;   36,826;    7,288;36455,008
 785,00;   31,684;    1,558;36454,477
 786,00;   30,449;    4,119;36609,201
 787,00;   32,037;    3,715;36901,355
 788,00;   37,820;    4,785;36724,684
 789,00;   23,263;    1,940;36884,133
 790,00;   34,567;    2,064;36639,539
 791,00;   35,574;    5,108;37085,536
 792,00;   33,921;    6,224;36549,884
 793,00;   29,754;    6,098;36684,174
 794,00;   20,531;    5,712;36363,303
 795,00;   22,622;   -0,945;36473,159
 796,00;   22,187;    0,387;36404,456
 797,00;   19,785;    2,339;36042,595
 798,00;   13,356;   -3,596;35780,798
 799,00;   23,665;    4,808;35420,531
 800,00;   12,924;    4,171;35284,582
 801,00;   22,101;    5,810;34440,825
 802,00;   21,359;   -2,867;34443,663
 803,00;   21,870;    2,139;34307,753
 804,00;   20,174;    2,001;34113,270
 805,00;   24,029;    2,988;33636,256
 806,00;   15,826;   -0,298;33060,784
 807,00;   19,497;   -0,155;33033,672
 808,00;   17,894;    4,308;32711,975
 809,00;    2,364;    8,518;32425,260
 810,00;   18,443;    3,259;32035,332
 811,00;   -2,925;    1,769;32125,824
 812,00;   25,997;    1,863;31797,090
 813,00;   11,624;    1,186;31540,208
 814,00;    9,849;    5,133;31671,525
 815,00;   23,578;    3,829;31296,928
 816,00;   10,555;    3,106;31108,752
 817,00;   13,133;    2,016;30605,363
 818,00;   20,863;    4,338;30997,159
 819,00;   11,032;    3,089;30405,419
 820,00;   14,626;    7,159;30148,499
 821,00;   15,201;    2,660;30164,743
 822,00;   16,367;    0,408;29768,480
 823,00;   11,825;    6,590;29524,454
 824,00;    9,926;   -2,013;29316,800
 825,00;    8,103;    7,821;29135,353
 826,00;   19,797;    4,077;28735,114
 827,00;   21,096;    6,341;28999,641
 828,00;    5,202;    3,056;28742,113
 829,00;   12,990;    0,872;28675,432
 830,00;   13,271;    2,746;28333,158
 831,00;    7,372;    2,474;28399,951
 832,00;    3,559;    0,378;28376,515
 833,00;   11,709;    8,963;28079,363
 834,00;    4,993;    0,427;28282,931
 835,00;    9,852;    3,908;28028,234
 836,00;    1,402;    0,164;28263,872
 837,00;   10,815;    4,288;27715,610
 838,00;    9,444;    5,189;27993,888
 839,00;    7,133;    2,788;27779,555
 840,00;   -1,461;    5,828;27701,236
 841,00;    2,930;    1,944;27736,924
 842,00;    9,726;    1,551;27678,304
 843,00;   -4,438;    2,396;27753,145
 844,00;    3,842;    2,294;27398,003
 845,00;    8,144;    2,821;27621,076
 846,00;   -2,624;    3,304;27366,872
 847,00;    8,224;    1,994;27096,838
 848,00;    2,237;    5,303;27264,237
 849,00;   10,861;    3,693;26825,401
 850,00;    1,349;    3,226;26883,147
 851,00;    1,917;   -0,704;26469,412
 852,00;   10,287;    0,601;26592,544
 853,00;    8,039;    4,262;26031,020
 854,00;    9,447;   -0,040;26191,045
 855,00;   10,671;    2,968;25751,538
 856,00;    1,748;    3,760;25443,997
 857,00;    5,480;    1,498;25275,101
 858,00;   -0,812;    1,043;24925,711
 859,00;   -1,484;   -1,107;24959,569
 860,00;    0,710;    9,451;24400,622
 861,00;   -2,378;    5,719;24441,330
 862,00;    2,206;    0,653;23886,421
 863,00;    1,924;    2,847;23555,331
 864,00;    5,861;   -0,398;23319,195
 865,00;   -2,898;    3,187;22848,051
 866,00;   -1,407;    4,585;22877,885
 867,00;   -2,417;    0,949;22519,785
 868,00;   -7,534;   -4,376;22195,715
 869,00;    6,279;    0,732;21534,061
 870,00;   -4,491;   -2,655;21645,564
 871,00;    4,113;    5,622;21223,098
 872,00;   14,926;    3,223;20818,920
 873,00;   -3,349;    4,779;20710,818
 874,00;    3,108;   -0,088;20160,841
 875,00;    3,760;    3,700;20174,218
 876,00;    0,418;    1,890;19757,687
 877,00;   -8,506;    4,817;19629,732
 878,00;   -1,491;    9,605;19354,176
 879,00;    0,912;    2,998;19113,723
 880,00;    1,735;   -1,484;18811,927
 881,00;    5,017;   56,385;18802,218
 882,00;   -2,205;   -2,872;18731,867
 883,00;   -2,260;    0,959;18789,016
 884,00;  -10,830;    9,259;18731,407
 885,00;   -8,850;    5,312;18705,487
 886,00;    3,444;    2,379;18851,221
 887,00;   -5,145;   -0,006;19028,694
 888,00;    1,250;    6,616;19049,508
 889,00;   -0,916;   -2,783;19456,452
 890,00;   -5,856;    2,266;19130,202
 891,00;    6,272;    4,306;19317,597
 892,00;    9,283;    7,445;19339,873
 893,00;    5,958;    2,059;19376,474
 894,00;   -3,447;    7,355;19579,345
 895,00;    3,852;    3,550;19578,151
 896,00;    1,420;    0,691;19794,546
 897,00;   -5,229;    1,859;19521,503
 898,00;    5,973;    0,633;19497,863
 899,00;   -7,062;    1,597;19606,431
 900,00;    3,822;    4,871;19487,794
 901,00;  -14,940;    0,429;19487,021
 902,00;   -3,553;    1,193;19482,143
 903,00;   -5,197;    5,184;19496,932
 904,00;    3,716;    4,196;19361,232
 905,00;   -7,114;    3,040;19177,774
 906,00;   -4,956;    2,088;19183,469
 907,00;    1,462;    0,821;18880,744
 908,00;    4,680;    2,884;18753,880
 909,00;   -1,170;    3,956;18443,324
 910,00;   -2,980;    4,127;18496,056
 911,00;    3,837;    0,490;18159,364
 912,00;    1,269;    3,369;18072,057
 913,00;    0,622;   -1,364;17948,099
 914,00;    8,610;    3,961;17512,267
 915,00;   -1,171;    0,781;17686,300
 916,00;   -4,042;    1,643;17283,177
 917,00;   -0,174;    4,271;17033,662
 918,00;   -5,712;    0,666;16796,326
 919,00;   -2,820;    2,611;16545,951
 920,00;   -7,535;    5,666;16356,050
 921,00;    5,164;    5,856;16109,987
 922,00;  -13,916;    8,668;15895,350
 923,00;   -7,101;    2,391;15548,135
 924,00;    0,889;    3,682;15312,339
 925,00;   -4,408;    3,474;14994,079
 926,00;   -1,159;    3,483;14609,696
 927,00;    0,110;    4,173;14447,626
 928,00;   -7,817;    4,918;13910,609
 929,00;    7,201;    3,297;13868,985
 930,00;    2,838;    5,804;13383,963
 931,00;    0,935;    1,265;13092,079
 932,00;   -5,636;   -2,047;12825,786
 933,00;    1,643;    0,686;12357,902
 934,00;   -5,323;    3,707;12086,283
 935,00;    5,157;   -0,258;11287,042
 936,00;   -0,633;    0,000;10652,333
 937,00;   -6,227;    0,621; 9968,240
 938,00;   -3,209;    3,722; 9160,350
 939,00;   -0,125;   -1,002; 8456,071
 940,00;    5,228;    6,402; 7698,365
 941,00;   -7,760;    1,931; 7372,742
 942,00;    0,661;    4,238; 7012,068
 943,00;   -0,325;    3,338; 6750,658
 944,00;    5,210;    6,158; 6704,312
 945,00;  -12,411;    3,383; 6645,972
 946,00;   -6,822;    1,673; 6750,353
 947,00;    6,602;    2,045; 6684,124
 948,00;    4,019;    3,077; 6859,087
 949,00;   -9,690;   -0,724; 6905,299
 950,00;   -6,585;    4,303; 6970,891
 951,00;   -5,324;    3,734; 7242,058
 952,00;   15,987;    1,565; 7155,168
 953,00;    7,854;    1,470; 7528,332
 954,00;   -1,557;    3,194; 7534,413
 955,00;    8,054;    4,253; 7624,742
 956,00;  -13,941;   -3,211; 7670,394
 957,00;    2,625;    6,497; 7760,754
 958,00;   -3,872;    2,368; 7982,426
 959,00;   -2,700;   -0,842; 7792,457
 960,00;   -1,985;    1,568; 7892,791
 961,00;   -7,364;    3,466; 7960,323
 962,00;   -0,362;    3,733; 8009,871
 963,00;   -6,660;   -1,271; 8056,483
 964,00;  -14,831;    2,504; 7940,252
 965,00;    0,141;    0,979; 8034,092
 966,00;    3,774;    5,138; 7920,691
 967,00;    0,706;    4,504; 7920,096
 968,00;   -4,294;    1,336; 7911,080
 969,00;  -13,809;    3,643; 7810,097
 970,00;    9,113;    4,112; 7812,516
 971,00;   -5,074;    0,975; 7822,167
 972,00;    4,184;    2,244; 7703,449
 973,00;   -6,906;    3,829; 7741,144
 974,00;    9,115;    3,528; 7606,739
 975,00;  -15,249;    9,840; 7616,591
 976,00;   12,212;    3,540; 7491,415
 977,00;    4,299;    1,158; 7433,090
 978,00;    0,393;    3,851; 7390,934
 979,00;   10,916;    5,284; 7234,839
 980,00;   -6,121;    3,377; 7221,538
 981,00;    1,396;    4,103; 7101,498
 982,00;   -9,551;    5,376; 7030,563
 983,00;   -0,252;    0,185; 6964,459
 984,00;    0,691;    1,903; 6791,681
 985,00;  -12,826;   -0,735; 6884,786
 986,00;    3,288;    3,984; 6535,673
 987,00;    0,026;    4,619; 6531,601
 988,00;   -1,680;    7,786; 6458,635
 989,00;   -6,234;    3,408; 6330,281
 990,00;   -5,871;    7,383; 6200,638
 991,00;   -7,326;    3,803; 6044,263
 992,00;   -5,899;    4,066; 5979,043
 993,00;   -4,262;    2,968; 5879,213
 994,00;   -4,034;    2,697; 5837,352
 995,00;   -1,426;    4,746; 5672,640
 996,00;   -7,398;    4,696; 5479,321
 997,00;   -0,519;    4,116; 5421,606
 998,00;    0,691;    2,840; 5304,811
 999,00;   -0,844;   -2,846; 5076,878
1000,00;  -13,530;   -0,401; 5073,507
1001,00;    3,223;    2,413; 4934,566
1002,00;  -14,808;    2,721; 4771,740
1003,00;   -3,410;    3,193; 4659,475
1004,00;   -0,662;    3,318; 4567,170
1005,00;   -2,520;    2,971; 4448,672
1006,00;   -8,672;    6,215; 4290,081
1007,00;   -4,631;    3,138; 4197,557
1008,00;  -12,790;    2,955; 4092,298
1009,00;    3,853;    5,693; 3950,825
1010,00;   -4,250;    3,239; 3976,646
1011,00;   -5,131;    4,341; 3852,594
1012,00;   -5,138;    4,219; 3822,411
1013,00;   -3,586;    3,989; 3796,641
1014,00;   -2,104;    1,826; 3774,270
1015,00;   -3,271;    5,844; 3813,325
1016,00;   -6,464;    6,027; 3750,420
1017,00;    1,079;    2,137; 3730,661
1018,00;   -1,527;    0,792; 3654,573
1019,00;   -7,872;    0,720; 3574,519
1020,00;   -5,490;    6,298; 3499,290
1021,00;    0,999;    7,873; 3310,743
1022,00;    7,378;    4,791; 3253,565
1023,00;   -5,369;    2,559; 3145,936
1024,00;   -4,242;    1,850; 3073,108
1025,00;    4,039;    0,314; 2982,295
1026,00;    3,230;    0,408; 2842,767
1027,00;   -5,225;    3,243; 2770,938
1028,00;   -1,413;    3,014; 2630,616
1029,00;   -5,942;    4,191; 2552,565
1030,00;   -6,160;    3,906; 2458,928
1031,00;   -5,808;    2,348; 2376,469
1032,00;   -4,727;   -0,189; 2339,266
1033,00;    7,356;    1,268; 2230,116
1034,00;   -1,336;    9,510; 2165,551
1035,00;   10,107;    1,348; 2093,223
1036,00;   -6,605;    3,156; 2021,790
1037,00;   -3,389;    1,820; 1948,954
1038,00;   -3,853;    3,195; 1904,856
1039,00;    5,708;    0,630; 1843,503
1040,00;    0,534;    0,761; 1762,364
1041,00;   -4,486;    2,140; 1731,450
1042,00;   -1,953;    4,696; 1670,515
1043,00;   -3,304;    3,250; 1609,635
1044,00;   -0,253;    6,727; 1568,765
1045,00;    1,852;    5,127; 1523,020
1046,00;   -5,148;    6,818; 1478,453
1047,00;   -0,508;    1,683; 1429,356
1048,00;   -9,517;    5,404; 1394,443
1049,00;   -8,361;    4,401; 1342,936
1050,00;   -7,338;    2,565; 1315,683
1051,00;   -2,233;    2,439; 1277,001
1052,00;   -7,870;    4,119; 1231,814
1053,00;  -11,133;    5,556; 1222,191
1054,00;    3,034;    4,484; 1197,243
1055,00;    1,239;   -7,048; 1156,731
1056,00;    4,738;   23,212; 1136,129
1057,00;   -2,701;    1,466; 1075,188
1058,00;   -1,838;    1,519; 1064,890
1059,00;   -8,222;   -1,981; 1025,328
1060,00;   -7,021;    4,271;  991,931
1061,00;   -0,357;    4,827;  969,708
1062,00;    2,222;    5,977;  948,920
1063,00;   -3,414;    5,065;  912,247
1064,00;   -1,040;    6,614;  896,884
1065,00;   -0,582;    2,581;  859,071
1066,00;  -14,462;    3,721;  850,201
1067,00;  -10,067;    1,855;  833,671
1068,00;   -8,680;    4,291;  803,982
1069,00;   -1,881;    0,971;  800,529
1070,00;   -1,327;   -6,648;  781,254
1071,00;   -9,950;    0,465;  784,165
1072,00;    1,576;    1,958;  755,231
1073,00;   -0,771;   -1,788;  743,175
1074,00;    3,244;    9,582;  722,567
1075,00;    3,453;    4,458;  707,139
1076,00;    1,345;    5,820;  694,732
1077,00;   -0,256;   -1,830;  672,129
1078,00;    7,598;    7,273;  667,702
1079,00;   -4,151;    9,890;  658,769
1080,00;   -7,943;    0,934;  642,278
1081,00;   -3,415;    3,234;  627,163
1082,00;   -3,809;    5,023;  601,046
1083,00;   -6,152;    1,785;  571,290
1084,00;   -4,948;    0,679;  605,954
1085,00;   -7,710;    3,167;  585,327
1086,00;    4,270;    2,699;  555,308
1087,00;    1,244;    3,714;  557,223
1088,00;   -6,094;    5,041;  527,679
1089,00;   -5,363;    1,571;  504,374
1090,00;    1,709;    1,848;  495,711
1091,00;    3,541;   -2,199;  496,580
1092,00;   -0,246;    8,707;  484,457
1093,00;    2,152;    4,808;  462,186
1094,00;   -6,010;    2,264;  452,215
1095,00;   -9,525;    3,360;  435,345
1096,00;   -2,459;    3,219;  424,386
1097,00;   -3,716;    3,403;  414,662
1098,00;   -2,311;    0,315;  403,777
1099,00;   Not Available
1100,00;   Not Available

